 C16H14O3 Density=1.2 Thickness=200. microns
 Photon Energy (eV), Transmission
    1400.0      0.37705E-10
    1400.9      0.39303E-10
    1401.7      0.40964E-10
    1402.6      0.42691E-10
    1403.4      0.44488E-10
    1404.3      0.46356E-10
    1405.2      0.48297E-10
    1406.0      0.50314E-10
    1406.9      0.52411E-10
    1407.7      0.54590E-10
    1408.6      0.56853E-10
    1409.5      0.59206E-10
    1410.3      0.61650E-10
    1411.2      0.64189E-10
    1412.0      0.66827E-10
    1412.9      0.69566E-10
    1413.8      0.72410E-10
    1414.6      0.75363E-10
    1415.5      0.78429E-10
    1416.3      0.81614E-10
    1417.2      0.84919E-10
    1418.1      0.88352E-10
    1418.9      0.91913E-10
    1419.8      0.95610E-10
    1420.6      0.99446E-10
    1421.5      0.10343E-09
    1422.4      0.10756E-09
    1423.2      0.11184E-09
    1424.1      0.11629E-09
    1424.9      0.12090E-09
    1425.8      0.12568E-09
    1426.7      0.13064E-09
    1427.5      0.13578E-09
    1428.4      0.14111E-09
    1429.2      0.14664E-09
    1430.1      0.15237E-09
    1431.0      0.15832E-09
    1431.8      0.16448E-09
    1432.7      0.17086E-09
    1433.5      0.17748E-09
    1434.4      0.18433E-09
    1435.3      0.19144E-09
    1436.1      0.19880E-09
    1437.0      0.20643E-09
    1437.8      0.21433E-09
    1438.7      0.22252E-09
    1439.6      0.23099E-09
    1440.4      0.23978E-09
    1441.3      0.24887E-09
    1442.1      0.25828E-09
    1443.0      0.26803E-09
    1443.9      0.27813E-09
    1444.7      0.28858E-09
    1445.6      0.29940E-09
    1446.4      0.31060E-09
    1447.3      0.32220E-09
    1448.2      0.33421E-09
    1449.0      0.34663E-09
    1449.9      0.35950E-09
    1450.7      0.37280E-09
    1451.6      0.38656E-09
    1452.5      0.40080E-09
    1453.3      0.41553E-09
    1454.2      0.43078E-09
    1455.0      0.44654E-09
    1455.9      0.46283E-09
    1456.8      0.47969E-09
    1457.6      0.49712E-09
    1458.5      0.51514E-09
    1459.3      0.53377E-09
    1460.2      0.55303E-09
    1461.1      0.57295E-09
    1461.9      0.59353E-09
    1462.8      0.61479E-09
    1463.6      0.63678E-09
    1464.5      0.65949E-09
    1465.4      0.68297E-09
    1466.2      0.70722E-09
    1467.1      0.73228E-09
    1467.9      0.75816E-09
    1468.8      0.78490E-09
    1469.7      0.81256E-09
    1470.5      0.84114E-09
    1471.4      0.87068E-09
    1472.2      0.90119E-09
    1473.1      0.93270E-09
    1474.0      0.96521E-09
    1474.8      0.99881E-09
    1475.7      0.10335E-08
    1476.5      0.10693E-08
    1477.4      0.11062E-08
    1478.3      0.11444E-08
    1479.1      0.11837E-08
    1480.0      0.12244E-08
    1480.8      0.12663E-08
    1481.7      0.13096E-08
    1482.6      0.13542E-08
    1483.4      0.14003E-08
    1484.3      0.14478E-08
    1485.1      0.14969E-08
    1486.0      0.15474E-08
    1486.9      0.15996E-08
    1487.7      0.16534E-08
    1488.6      0.17089E-08
    1489.4      0.17661E-08
    1490.3      0.18251E-08
    1491.2      0.18860E-08
    1492.0      0.19487E-08
    1492.9      0.20134E-08
    1493.7      0.20805E-08
    1494.6      0.21498E-08
    1495.5      0.22212E-08
    1496.3      0.22948E-08
    1497.2      0.23708E-08
    1498.0      0.24490E-08
    1498.9      0.25297E-08
    1499.8      0.26128E-08
    1500.6      0.26985E-08
    1501.5      0.27868E-08
    1502.3      0.28777E-08
    1503.2      0.29714E-08
    1504.1      0.30680E-08
    1504.9      0.31675E-08
    1505.8      0.32699E-08
    1506.6      0.33755E-08
    1507.5      0.34841E-08
    1508.4      0.35961E-08
    1509.2      0.37114E-08
    1510.1      0.38301E-08
    1510.9      0.39524E-08
    1511.8      0.40783E-08
    1512.7      0.42079E-08
    1513.5      0.43413E-08
    1514.4      0.44787E-08
    1515.2      0.46200E-08
    1516.1      0.47655E-08
    1517.0      0.49152E-08
    1517.8      0.50695E-08
    1518.7      0.52283E-08
    1519.5      0.53917E-08
    1520.4      0.55598E-08
    1521.3      0.57328E-08
    1522.1      0.59107E-08
    1523.0      0.60938E-08
    1523.8      0.62821E-08
    1524.7      0.64759E-08
    1525.6      0.66751E-08
    1526.4      0.68800E-08
    1527.3      0.70908E-08
    1528.1      0.73075E-08
    1529.0      0.75304E-08
    1529.9      0.77596E-08
    1530.7      0.79952E-08
    1531.6      0.82374E-08
    1532.4      0.84865E-08
    1533.3      0.87424E-08
    1534.2      0.90056E-08
    1535.0      0.92762E-08
    1535.9      0.95541E-08
    1536.7      0.98397E-08
    1537.6      0.10133E-07
    1538.5      0.10435E-07
    1539.3      0.10745E-07
    1540.2      0.11063E-07
    1541.0      0.11391E-07
    1541.9      0.11727E-07
    1542.8      0.12072E-07
    1543.6      0.12427E-07
    1544.5      0.12791E-07
    1545.3      0.13165E-07
    1546.2      0.13549E-07
    1547.1      0.13944E-07
    1547.9      0.14349E-07
    1548.8      0.14765E-07
    1549.6      0.15193E-07
    1550.5      0.15631E-07
    1551.4      0.16082E-07
    1552.2      0.16544E-07
    1553.1      0.17018E-07
    1553.9      0.17506E-07
    1554.8      0.18005E-07
    1555.7      0.18519E-07
    1556.5      0.19045E-07
    1557.4      0.19586E-07
    1558.2      0.20140E-07
    1559.1      0.20709E-07
    1560.0      0.21293E-07
    1560.8      0.21892E-07
    1561.7      0.22507E-07
    1562.5      0.23137E-07
    1563.4      0.23784E-07
    1564.3      0.24447E-07
    1565.1      0.25128E-07
    1566.0      0.25825E-07
    1566.8      0.26541E-07
    1567.7      0.27275E-07
    1568.6      0.28029E-07
    1569.4      0.28801E-07
    1570.3      0.29592E-07
    1571.1      0.30404E-07
    1572.0      0.31236E-07
    1572.9      0.32089E-07
    1573.7      0.32964E-07
    1574.6      0.33860E-07
    1575.4      0.34779E-07
    1576.3      0.35721E-07
    1577.2      0.36686E-07
    1578.0      0.37676E-07
    1578.9      0.38689E-07
    1579.7      0.39728E-07
    1580.6      0.40792E-07
    1581.5      0.41883E-07
    1582.3      0.43000E-07
    1583.2      0.44146E-07
    1584.0      0.45318E-07
    1584.9      0.46520E-07
    1585.8      0.47751E-07
    1586.6      0.49011E-07
    1587.5      0.50302E-07
    1588.3      0.51624E-07
    1589.2      0.52978E-07
    1590.1      0.54365E-07
    1590.9      0.55785E-07
    1591.8      0.57239E-07
    1592.6      0.58728E-07
    1593.5      0.60252E-07
    1594.4      0.61812E-07
    1595.2      0.63410E-07
    1596.1      0.65046E-07
    1596.9      0.66720E-07
    1597.8      0.68433E-07
    1598.7      0.70188E-07
    1599.5      0.71983E-07
    1600.4      0.73820E-07
    1601.2      0.75700E-07
    1602.1      0.77624E-07
    1603.0      0.79592E-07
    1603.8      0.81607E-07
    1604.7      0.83668E-07
    1605.5      0.85777E-07
    1606.4      0.87934E-07
    1607.3      0.90141E-07
    1608.1      0.92399E-07
    1609.0      0.94708E-07
    1609.8      0.97071E-07
    1610.7      0.99487E-07
    1611.6      0.10196E-06
    1612.4      0.10448E-06
    1613.3      0.10707E-06
    1614.1      0.10971E-06
    1615.0      0.11241E-06
    1615.9      0.11518E-06
    1616.7      0.11800E-06
    1617.6      0.12089E-06
    1618.4      0.12384E-06
    1619.3      0.12686E-06
    1620.2      0.12995E-06
    1621.0      0.13310E-06
    1621.9      0.13633E-06
    1622.7      0.13962E-06
    1623.6      0.14299E-06
    1624.5      0.14643E-06
    1625.3      0.14995E-06
    1626.2      0.15355E-06
    1627.0      0.15722E-06
    1627.9      0.16098E-06
    1628.8      0.16481E-06
    1629.6      0.16873E-06
    1630.5      0.17274E-06
    1631.3      0.17683E-06
    1632.2      0.18101E-06
    1633.1      0.18527E-06
    1633.9      0.18964E-06
    1634.8      0.19409E-06
    1635.6      0.19864E-06
    1636.5      0.20329E-06
    1637.4      0.20803E-06
    1638.2      0.21288E-06
    1639.1      0.21782E-06
    1639.9      0.22288E-06
    1640.8      0.22804E-06
    1641.7      0.23331E-06
    1642.5      0.23869E-06
    1643.4      0.24418E-06
    1644.2      0.24979E-06
    1645.1      0.25552E-06
    1646.0      0.26136E-06
    1646.8      0.26732E-06
    1647.7      0.27342E-06
    1648.5      0.27963E-06
    1649.4      0.28597E-06
    1650.3      0.29245E-06
    1651.1      0.29906E-06
    1652.0      0.30580E-06
    1652.8      0.31268E-06
    1653.7      0.31971E-06
    1654.6      0.32687E-06
    1655.4      0.33418E-06
    1656.3      0.34165E-06
    1657.1      0.34925E-06
    1658.0      0.35702E-06
    1658.9      0.36494E-06
    1659.7      0.37302E-06
    1660.6      0.38126E-06
    1661.4      0.38967E-06
    1662.3      0.39825E-06
    1663.2      0.40700E-06
    1664.0      0.41592E-06
    1664.9      0.42501E-06
    1665.7      0.43429E-06
    1666.6      0.44376E-06
    1667.5      0.45341E-06
    1668.3      0.46325E-06
    1669.2      0.47328E-06
    1670.0      0.48351E-06
    1670.9      0.49394E-06
    1671.8      0.50457E-06
    1672.6      0.51541E-06
    1673.5      0.52646E-06
    1674.3      0.53773E-06
    1675.2      0.54922E-06
    1676.1      0.56092E-06
    1676.9      0.57285E-06
    1677.8      0.58501E-06
    1678.6      0.59741E-06
    1679.5      0.61004E-06
    1680.4      0.62292E-06
    1681.2      0.63603E-06
    1682.1      0.64940E-06
    1682.9      0.66302E-06
    1683.8      0.67690E-06
    1684.7      0.69104E-06
    1685.5      0.70546E-06
    1686.4      0.72013E-06
    1687.2      0.73509E-06
    1688.1      0.75032E-06
    1689.0      0.76584E-06
    1689.8      0.78166E-06
    1690.7      0.79776E-06
    1691.5      0.81417E-06
    1692.4      0.83087E-06
    1693.3      0.84790E-06
    1694.1      0.86523E-06
    1695.0      0.88288E-06
    1695.8      0.90086E-06
    1696.7      0.91916E-06
    1697.6      0.93781E-06
    1698.4      0.95678E-06
    1699.3      0.97611E-06
    1700.1      0.99579E-06
    1701.0      0.10158E-05
    1701.9      0.10362E-05
    1702.7      0.10570E-05
    1703.6      0.10781E-05
    1704.4      0.10996E-05
    1705.3      0.11215E-05
    1706.2      0.11438E-05
    1707.0      0.11665E-05
    1707.9      0.11896E-05
    1708.7      0.12131E-05
    1709.6      0.12371E-05
    1710.5      0.12614E-05
    1711.3      0.12862E-05
    1712.2      0.13115E-05
    1713.0      0.13371E-05
    1713.9      0.13632E-05
    1714.8      0.13898E-05
    1715.6      0.14169E-05
    1716.5      0.14444E-05
    1717.3      0.14724E-05
    1718.2      0.15008E-05
    1719.1      0.15298E-05
    1719.9      0.15593E-05
    1720.8      0.15893E-05
    1721.6      0.16198E-05
    1722.5      0.16508E-05
    1723.4      0.16824E-05
    1724.2      0.17145E-05
    1725.1      0.17472E-05
    1725.9      0.17806E-05
    1726.8      0.18147E-05
    1727.7      0.18493E-05
    1728.5      0.18845E-05
    1729.4      0.19203E-05
    1730.2      0.19567E-05
    1731.1      0.19937E-05
    1732.0      0.20314E-05
    1732.8      0.20697E-05
    1733.7      0.21086E-05
    1734.5      0.21482E-05
    1735.4      0.21885E-05
    1736.3      0.22294E-05
    1737.1      0.22710E-05
    1738.0      0.23133E-05
    1738.8      0.23564E-05
    1739.7      0.24001E-05
    1740.6      0.24446E-05
    1741.4      0.24898E-05
    1742.3      0.25357E-05
    1743.1      0.25824E-05
    1744.0      0.26299E-05
    1744.9      0.26781E-05
    1745.7      0.27272E-05
    1746.6      0.27770E-05
    1747.4      0.28277E-05
    1748.3      0.28791E-05
    1749.2      0.29315E-05
    1750.0      0.29846E-05
    1750.9      0.30387E-05
    1751.7      0.30935E-05
    1752.6      0.31494E-05
    1753.5      0.32061E-05
    1754.3      0.32639E-05
    1755.2      0.33225E-05
    1756.0      0.33821E-05
    1756.9      0.34427E-05
    1757.8      0.35042E-05
    1758.6      0.35667E-05
    1759.5      0.36302E-05
    1760.3      0.36947E-05
    1761.2      0.37602E-05
    1762.1      0.38268E-05
    1762.9      0.38943E-05
    1763.8      0.39630E-05
    1764.6      0.40327E-05
    1765.5      0.41036E-05
    1766.4      0.41755E-05
    1767.2      0.42486E-05
    1768.1      0.43228E-05
    1768.9      0.43982E-05
    1769.8      0.44747E-05
    1770.7      0.45524E-05
    1771.5      0.46313E-05
    1772.4      0.47114E-05
    1773.2      0.47928E-05
    1774.1      0.48754E-05
    1775.0      0.49592E-05
    1775.8      0.50444E-05
    1776.7      0.51308E-05
    1777.5      0.52186E-05
    1778.4      0.53077E-05
    1779.3      0.53981E-05
    1780.1      0.54899E-05
    1781.0      0.55831E-05
    1781.8      0.56778E-05
    1782.7      0.57740E-05
    1783.6      0.58717E-05
    1784.4      0.59708E-05
    1785.3      0.60713E-05
    1786.1      0.61734E-05
    1787.0      0.62770E-05
    1787.9      0.63822E-05
    1788.7      0.64888E-05
    1789.6      0.65971E-05
    1790.4      0.67070E-05
    1791.3      0.68185E-05
    1792.2      0.69317E-05
    1793.0      0.70465E-05
    1793.9      0.71629E-05
    1794.7      0.72811E-05
    1795.6      0.74010E-05
    1796.5      0.75227E-05
    1797.3      0.76461E-05
    1798.2      0.77713E-05
    1799.0      0.78984E-05
    1799.9      0.80272E-05
    1800.8      0.81580E-05
    1801.6      0.82905E-05
    1802.5      0.84251E-05
    1803.3      0.85616E-05
    1804.2      0.86999E-05
    1805.1      0.88403E-05
    1805.9      0.89827E-05
    1806.8      0.91270E-05
    1807.6      0.92734E-05
    1808.5      0.94220E-05
    1809.4      0.95726E-05
    1810.2      0.97252E-05
    1811.1      0.98801E-05
    1811.9      0.10037E-04
    1812.8      0.10196E-04
    1813.7      0.10358E-04
    1814.5      0.10522E-04
    1815.4      0.10688E-04
    1816.2      0.10856E-04
    1817.1      0.11027E-04
    1818.0      0.11200E-04
    1818.8      0.11375E-04
    1819.7      0.11553E-04
    1820.5      0.11733E-04
    1821.4      0.11916E-04
    1822.3      0.12101E-04
    1823.1      0.12289E-04
    1824.0      0.12479E-04
    1824.8      0.12672E-04
    1825.7      0.12868E-04
    1826.6      0.13066E-04
    1827.4      0.13267E-04
    1828.3      0.13470E-04
    1829.1      0.13677E-04
    1830.0      0.13886E-04
